n v(n)    Re(T)       Im(T)        Mod(T) 
   
0  454  364997.0  0.0  364997.0  
1  196  -1019.78284  48.46582  1020.9339  
2  54  -1040.529  -0.102353096  1040.529  
3  75  -1042.8595  -32.70967  1043.3723  
4  258  -1004.23627  -83.8976  1007.73474  
5  524  -1064.9609  -93.92382  1069.0946  
6  779  -1050.9797  121.9242  1058.0283  
7  918  -1080.3789  -26.64404  1080.7074  
8  800  -1090.0304  1.9156723  1090.0321  
9  549  -1075.8376  -29.742798  1076.2487  
10  277  -1059.1711  -33.792343  1059.7101  
11  83  -1061.332  -73.73114  1063.89  
12  50  -1091.0056  -79.1878  1093.8757  
13  182  -1093.2097  -72.28896  1095.5972  
14  431  -1074.3193  -123.24833  1081.3658  
15  700  -1071.4846  -83.71384  1074.7499  
16  890  -1091.6167  -103.69747  1096.531  
17  859  -1094.0262  -106.887375  1099.2354  
18  640  -1084.4548  -88.73232  1088.0789  
19  364  -1067.5721  -172.2771  1081.3832  
20  135  -1109.6311  -150.46008  1119.7854  
21  40  -1124.6431  -120.34423  1131.0636  
22  117  -1110.5306  -144.242  1119.8589  
23  341  -1142.5232  -179.56335  1156.5476  
24  615  -1137.8811  -159.2928  1148.9768  
25  843  -1119.7429  -174.57007  1133.2692  
26  903  -1183.9624  -205.58768  1201.6793  
27  724  -1138.4788  -174.02364  1151.7023  
28  457  -1112.5228  -206.51045  1131.5271  
29  198  -1272.976  -422.39578  1341.2256  
30  55  -1217.6321  -277.0764  1248.759  
31  75  -1215.5667  -287.5017  1249.1035  
32  255  -1215.0563  -284.62048  1247.9465  
33  522  -1229.1938  -307.98853  1267.1915  
34  778  -1249.3492  -265.64352  1277.2783  
35  917  -1238.9302  -274.01678  1268.8708  
36  804  -1225.4578  -275.32666  1256.0062  
37  549  -1250.7446  -370.21475  1304.3854  
38  279  -1256.0203  -380.7127  1312.4515  
39  83  -1285.9006  -358.43253  1334.9211  
40  52  -1348.0621  -356.27228  1394.3463  
41  180  -1336.139  -325.7111  1375.2655  
42  431  -1327.481  -388.13602  1383.06  
43  700  -1331.4219  -404.01956  1391.372  
44  888  -1352.207  -439.96594  1421.9824  
45  863  -1394.9517  -468.06104  1471.3842  
46  644  -1419.4048  -498.58167  1504.4247  
47  367  -1482.105  -503.4491  1565.2783  
48  132  -1484.6394  -467.60907  1556.5386  
49  42  -1478.4121  -478.93695  1554.0537  
50  117  -1542.3267  -527.3545  1629.9921  
51  338  -1501.5854  -564.9243  1604.3373  
52  614  -1524.9536  -558.63947  1624.0571  
53  842  -1605.5156  -605.163  1715.7805  
54  903  -1633.0154  -646.38684  1756.2902  
55  728  -1698.1462  -639.64307  1814.6195  
56  460  -1679.8604  -694.0935  1817.6073  
57  200  -1845.0709  -586.4885  1936.0411  
58  57  -1823.1993  -745.5582  1969.7494  
59  75  -1831.7203  -770.47534  1987.1667  
60  255  -1901.945  -818.5586  2070.6116  
61  522  -1933.9666  -886.1831  2127.3333  
62  775  -2033.2444  -894.64685  2221.3682  
63  917  -2086.2437  -920.6854  2280.3672  
64  804  -2184.16  -1001.1441  2402.6743  
65  553  -2243.5503  -1017.10815  2463.3367  
66  281  -2360.5125  -1104.5881  2606.1724  
67  85  -2421.9023  -1165.4025  2687.708  
68  51  -2516.795  -1240.6826  2805.9846  
69  177  -2640.1072  -1298.9185  2942.3384  
70  429  -2809.4084  -1481.3881  3176.0488  
71  698  -2939.52  -1571.4916  3333.2212  
72  888  -3193.295  -1665.1752  3601.3804  
73  864  -3403.916  -1790.5249  3846.1182  
74  645  -3597.2014  -1876.2965  4057.1353  
75  370  -3943.4714  -2122.4526  4478.367  
76  135  -4275.427  -2374.4429  4890.527  
77  41  -4683.3667  -2740.4683  5426.2407  
78  116  -5251.7593  -3149.915  6123.9644  
79  339  -6061.6924  -3615.8904  7058.242  
80  611  -7122.6504  -4168.5176  8252.799  
81  841  -8554.534  -4984.0273  9900.534  
82  903  -10641.867  -6434.655  12436.001  
83  730  -14208.556  -8810.376  16718.426  
84  462  -22172.143  -14501.132  26493.145  
85  203  -54444.523  -36520.133  65558.57  
86  56  120735.81  81211.195  145507.38  
87  74  28782.037  19094.56  34539.945  
88  250  16196.598  10499.343  19301.969  
89  521  10942.003  7290.036  13148.082  
90  776  8344.277  5673.93  10090.612  
91  917  6553.144  4722.4756  8077.467  
92  806  5513.916  4070.6685  6853.73  
93  556  4770.69  3556.6143  5950.5454  
94  284  4160.857  3086.2673  5180.519  
95  88  3708.9905  2697.1277  4585.9688  
96  48  3263.5835  2448.289  4079.84  
97  177  2926.0605  2242.242  3686.391  
98  427  2631.4646  2041.7023  3330.6387  
99  693  2443.9553  1942.335  3121.7915  
100  889  2218.6396  1830.3679  2876.2144  
101  861  2071.9556  1702.8073  2681.8936  
102  642  1943.2073  1596.1987  2514.7375  
103  366  1772.1587  1510.5098  2328.5588  
104  132  1701.5791  1422.7554  2218.018  
105  42  1576.7288  1383.1876  2097.4465  
106  118  1445.1146  1325.5892  1961.0056  
107  342  1358.4207  1206.8483  1817.0826  
108  615  1299.2261  1192.884  1763.7916  
109  842  1244.083  1163.9143  1703.6545  
110  902  1149.9863  1089.9714  1584.4578  
111  727  1125.6685  1086.8135  1564.7021  
112  459  1017.4624  1026.1626  1445.0742  
113  199  995.1062  1011.00757  1418.5813  
114  56  922.91296  1016.2725  1372.7993  
115  73  910.5182  826.99744  1230.0277  
116  253  850.39014  838.06104  1193.9471  
117  523  827.0054  845.91034  1183.0056  
118  778  775.12744  815.3825  1125.0205  
119  917  787.6864  832.6994  1146.2278  
120  798  723.4492  714.14575  1016.55444  
121  546  734.2827  755.0564  1053.2242  
122  275  683.18445  723.37915  994.99664  
123  83  663.3059  672.5792  944.63617  
124  51  605.03613  681.9479  911.6587  
125  180  562.4249  681.50684  883.61383  
126  432  590.14404  691.03503  908.73505  
127  704  562.3994  645.2599  855.9517  
128  891  504.23535  605.82135  788.2086  
129  861  505.99994  617.1823  798.09143  
130  639  499.6548  574.27466  761.2137  
131  363  460.29367  569.162  731.99426  
132  131  439.85852  591.4761  737.10205  
133  42  442.91437  586.0318  734.5791  
134  119  449.76154  555.7761  714.9633  
135  341  414.32886  526.1199  669.67944  
136  616  382.33554  508.79092  636.4343  
137  845  390.6444  494.51447  630.1965  
138  902  333.778  485.26633  588.9747  
139  724  355.00043  475.87296  593.70056  
140  454  324.37164  441.72238  548.0289  
141  196  348.42664  463.07974  579.52045  
142  54  417.29156  465.06482  624.834  
143  73  202.7557  398.65323  447.2519  
144  257  200.30356  397.574  445.18155  
145  524  204.45668  402.3421  451.3111  
146  778  189.39467  431.91232  471.61276  
147  918  212.92148  436.26874  485.4544  
148  800  184.78069  407.82916  447.73712  
149  547  219.61792  396.3797  453.1544  
150  277  235.7506  399.98502  464.29123  
151  84  163.72615  366.17953  401.11557  
152  51  177.70667  385.64334  424.61798  
153  179  151.73102  331.7331  364.78644  
154  431  88.980606  349.92816  361.0641  
155  701  172.12512  293.11523  339.91705  
156  889  156.09758  305.99017  343.5061  
157  861  139.65834  300.7212  331.5685  
158  640  119.29295  272.00156  297.0112  
159  362  109.36694  251.4317  274.18796  
160  132  100.08139  220.65921  242.2948  
161  42  115.27573  214.29492  243.3327  
162  118  74.05397  193.02899  206.74666  
163  341  78.19786  165.01855  182.60895  
164  613  68.69119  120.02954  138.29523  
165  842  113.265305  64.68323  130.4337  
166  903  -178.36775  90.711975  200.10927  
167  726  -116.76796  15.235107  117.75765  
168  456  -147.51881  -141.64508  204.51193  
169  198  -283.6371  -386.2381  479.1971  
170  56  -520.13654  -864.379  1008.8078  
171  75  -2180.1802  -4270.889  4795.1724  
172  255  1506.5432  3165.309  3505.5461  
173  524  652.39246  1456.4265  1595.8679  
174  778  460.56982  992.4272  1094.0916  
175  917  363.20142  800.15735  878.73035  
176  803  300.88852  654.5862  720.42834  
177  549  236.08669  613.1795  657.0586  
178  280  249.47047  568.4016  620.7382  
179  83  175.85455  570.2675  596.7662  
180  50  162.1495  495.78986  521.6321  
181  179  192.57068  459.72122  498.4246  
182  430  169.03198  464.85724  494.63528  
183  698  139.49911  444.38528  465.76633  
184  888  108.86949  384.6618  399.7715  
185  863  140.09326  421.6734  444.33612  
186  643  152.60974  412.2025  439.54596  
187  363  108.329735  398.03015  412.50858  
188  133  117.02228  418.09708  434.16516  
189  41  98.79946  386.07288  398.51422  
190  118  127.51158  347.37912  370.0425  
191  339  84.75603  349.18793  359.32687  
192  611  68.51489  384.79068  390.8429  
193  840  114.93794  378.70984  395.76746  
194  903  66.33684  316.03943  322.92645  
195  729  73.38098  366.37204  373.64853  
196  462  78.20323  335.2898  344.28912  
197  198  51.259594  337.2868  341.1597  
198  57  50.186527  323.4784  327.3484  
199  73  22.417805  334.40042  335.151  
200  253  -131.50562  523.3599  539.6289  
201  520  108.94662  240.96387  264.4484  
202  776  82.60707  265.69464  278.24014  
203  917  79.51791  287.5954  298.386  
204  802  46.557938  257.72864  261.90015  
205  554  59.23873  254.34323  261.15076  
206  280  72.238045  264.37277  274.0644  
207  85  80.18907  295.7616  306.43958  
208  49  41.522892  263.0534  266.31042  
209  179  -13.566864  262.6501  263.00024  
210  428  59.39258  252.82379  259.70627  
211  697  35.296185  269.37613  271.6787  
212  888  24.801514  249.98322  251.21051  
213  863  40.590317  241.43661  244.82486  
214  646  19.485374  235.56705  236.37155  
215  370  37.20475  238.61722  241.50024  
216  137  41.88256  235.46228  239.15817  
217  41  -11.3066025  237.75223  238.02092  
218  115  2.205101  197.25226  197.26459  
219  339  6.071434  237.86707  237.94455  
220  612  -8.373863  266.019  266.1508  
221  840  17.054222  223.95786  224.60625  
222  904  47.915497  266.1329  270.41193  
223  731  35.63018  228.14569  230.91116  
224  463  -29.368813  261.66016  263.30316  
225  202  11.125534  242.92206  243.1767  
226  56  -4.7673645  198.29626  198.35356  
227  75  -15.175705  236.0982  236.58543  
228  254  47.449966  256.54965  260.9008  
229  522  -6.3595886  185.03821  185.14746  
230  774  -5.6438904  230.06403  230.13324  
231  915  -37.076385  160.73877  164.95941  
232  805  -9.284363  206.31299  206.52179  
233  555  -39.145035  203.9722  207.69446  
234  283  52.089066  113.32025  124.71868  
235  86  -7.9906616  208.33005  208.48325  
236  49  -32.62784  234.40924  236.66911  
237  176  13.20784  213.17218  213.58095  
238  425  21.699463  213.07593  214.17801  
239  696  -13.804413  203.44434  203.91214  
240  888  9.310257  228.69867  228.88809  
241  864  -27.774231  174.9389  177.12997  
242  646  -12.846191  229.5235  229.8827  
243  371  -45.345932  198.55621  203.66841  
244  135  -30.899948  218.09167  220.2698  
245  43  -55.933716  195.84613  203.67693  
246  115  -20.0643  104.968506  106.86891  
247  337  -40.45642  152.55157  157.82492  
248  610  -43.08905  153.48093  159.41475  
249  841  -47.642487  134.54044  142.72679  
250  903  -21.655334  128.74707  130.55559  
251  732  -45.467896  106.49472  115.79488  
252  464  -2.2066956  105.13788  105.16103  
253  205  -21.253403  118.36972  120.26262  
254  57  -23.468643  106.97235  109.51649  
255  72  -14.647003  90.449524  91.627785  
256  249  -43.618195  -0.41107178  43.620132  
257  519  181.3599  -2140.8892  2148.5571  
258  774  -115.58818  289.78195  311.9843  
259  915  -94.343765  254.49847  271.42258  
260  807  -35.96869  201.2927  204.48103  
261  557  -58.215607  180.06708  189.24379  
262  285  -20.786377  176.73132  177.94952  
263  89  -62.877686  191.95117  201.98726  
264  49  -22.904388  167.9693  169.52374  
265  172  -64.34628  156.26138  168.9913  
266  425  -71.30873  155.133  170.73717  
267  695  -69.49713  158.35745  172.93622  
268  885  -79.222855  179.50485  196.20972  
269  865  -78.77896  145.50363  165.46127  
270  648  -43.62607  168.57098  174.1247  
271  372  -42.865387  155.28015  161.08807  
272  136  -90.08957  156.32721  180.42818  
273  42  -32.64209  169.73721  172.84741  
274  113  -63.167206  121.36838  136.82243  
275  331  -37.267822  179.60611  183.43185  
276  604  -85.672  172.02383  192.17671  
277  839  -55.796326  155.88065  165.56572  
278  905  -57.879883  107.18524  121.81444  
279  732  -53.281982  133.0727  143.34334  
280  465  -40.05417  138.47452  144.15106  
281  205  -66.042755  115.01041  132.62367  
282  57  -87.517426  152.24866  175.61023  
283  72  -42.16333  101.84503  110.227745  
284  246  -45.7955  111.55493  120.589096  
285  513  -50.499847  112.59549  123.401695  
286  770  -406.31094  252.51605  478.38577  
287  915  -126.80768  152.40918  198.26433  
288  809  -94.865265  156.77328  183.24104  
289  559  -101.054474  97.3988  140.35147  
290  287  -127.683014  113.91022  171.10959  
291  89  -89.972595  94.702515  130.62785  
292  49  -119.072174  144.14139  186.96236  
293  172  -84.21118  123.05942  149.11453  
294  422  -56.41455  136.34988  147.5598  
295  691  -83.98114  114.502716  141.99895  
296  884  -75.71179  99.72839  125.21194  
297  866  -80.562164  102.56055  130.41827  
298  651  -112.49695  114.8728  160.78346  
299  374  -104.16513  103.90607  147.12866  
300  139  -108.020935  104.55835  150.3362  
301  43  -68.481415  120.71896  138.79039  
302  112  -101.27075  146.0029  177.68683  
303  330  -77.59915  143.01758  162.71342  
304  601  -70.49606  110.05441  130.69685  
305  837  -73.20856  99.258545  123.33593  
306  905  -81.00046  119.668  144.50433  
307  734  -85.29785  75.58469  113.96828  
308  468  -136.48022  131.04248  189.20619  
309  207  -103.8743  106.3226  148.64174  
310  59  -75.573944  80.868195  110.68462  
311  71  -29.644806  114.67648  118.44623  
312  243  -118.95932  69.49515  137.77118  
313  509  -79.318695  112.86224  137.94688  
314  769  -53.792084  258.29944  263.84122  
315  914  -23.881927  115.21823  117.667274  
316  813  -81.30145  97.21881  126.73367  
317  560  -101.50824  99.98697  142.48268  
318  286  -109.66379  98.89139  147.66737  
319  90  -66.38147  77.099396  101.73896  
320  49  -66.94025  95.01584  116.22825  
321  168  -114.33609  95.90057  149.23022  
322  418  -98.08209  39.48111  105.7301  
323  688  -78.319885  73.27789  107.25509  
324  884  -86.3764  62.207153  106.44535  
325  866  -98.464355  66.81204  118.99193  
326  654  -61.551178  159.56506  171.02502  
327  379  -137.7638  146.82147  201.33406  
328  140  -79.039246  113.5997  138.39108  
329  44  -115.37457  58.144226  129.1977  
330  110  -113.06961  125.30798  168.78041  
331  329  -123.57898  80.38754  147.42429  
332  599  -116.450195  98.36253  152.43306  
333  833  -115.19278  87.892365  144.89459  
334  906  -140.35657  105.49794  175.58412  
335  738  -113.09308  107.18176  155.8139  
336  472  -98.730774  108.93602  147.0198  
337  209  -123.451324  81.343155  147.84093  
338  57  -108.58603  146.16742  182.08745  
339  70  -160.26666  124.93231  203.20798  
340  242  -137.33795  154.11069  206.4263  
341  507  -203.60504  176.25652  269.29794  
342  766  -376.7502  385.99118  539.3792  
343  913  817.31024  -977.87524  1274.4552  
344  814  110.92383  -173.56912  205.98625  
345  567  -31.296204  -61.37256  68.89153  
346  295  -43.730957  -24.00705  49.887222  
347  91  -57.219177  6.303711  57.56536  
348  49  -50.131958  32.056564  59.50493  
349  168  -60.195496  50.180008  78.36792  
350  414  -84.9621  61.64859  104.97193  
351  686  -45.495728  56.672028  72.67448  
352  883  -86.41968  31.890976  92.1162  
353  870  -77.93646  40.431625  87.79982  
354  658  -99.96451  36.9265  106.56674  
355  383  -57.05481  19.57396  60.319077  
356  144  -55.44409  27.997894  62.112232  
357  43  -88.00647  17.094131  89.65126  
358  110  -57.517334  22.159134  61.638226  
359  323  -56.74115  49.58911  75.35674  
360  599  -54.978638  -12.54744  56.392277  
361  832  -80.92987  1.1889648  80.93861  
362  908  -74.19476  36.57625  82.72052  
363  743  -61.74707  25.133438  66.66626  
364  475  -63.43982  17.89421  65.9152  
365  211  -67.542786  50.357452  84.24904  
366  61  -103.89374  39.267456  111.06683  
367  69  -36.968384  34.818665  50.783863  
368  241  -74.56366  16.397232  76.34532  
369  507  -65.72418  60.895172  89.59849  
370  765  -25.565552  53.895874  59.65201  
371  912  -8.214294  44.08512  44.84387  
372  815  -233.96945  -71.8407  244.75046  
373  570  -171.75818  -10.78006  172.09613  
374  295  -121.635925  3.0549011  121.67428  
375  93  -106.81616  -1.3183517  106.824295  
376  47  -90.68536  -25.9161  94.31585  
377  166  -99.912415  12.27446  100.66356  
378  414  -85.63855  -10.946877  86.335365  
379  684  -91.95172  -25.211937  95.34548  
380  881  -88.08765  -23.723549  91.22631  
381  873  -117.11304  8.642204  117.43147  
382  659  -74.736084  53.65583  92.00234  
383  387  -108.43341  9.380325  108.83839  
384  143  -107.78119  36.772057  113.881386  
385  44  -109.73639  -22.392868  111.99784  
386  106  -96.57312  32.471733  101.886116  
387  323  -113.49133  -17.630486  114.852585  
388  597  -92.44818  -0.33060074  92.44877  
389  832  -105.3996  7.746155  105.68386  
390  909  -118.91974  17.507278  120.20154  
391  744  -96.89807  41.73409  105.50342  
392  477  -116.15613  4.5405235  116.244835  
393  216  -106.30725  21.205162  108.40153  
394  60  -172.80893  7.42593  172.96841  
395  67  -43.798767  -6.9633255  44.348843  
396  238  -83.4483  -31.65979  89.252235  
397  505  -66.38733  -22.31827  70.03844  
398  761  -72.08209  -5.3125467  72.277596  
399  912  -57.228638  -11.278126  58.32935  
400  816  -54.999207  -0.47199368  55.001232  
401  570  -58.26239  9.964505  59.108353  
402  298  -71.79974  3.836604  71.902176  
403  94  -67.12421  19.541063  69.91074  
404  48  -83.96008  30.173452  89.21733  
405  163  -43.26117  4.6122837  43.506344  
406  409  -172.90875  -9.501171  173.1696  
407  683  -106.94141  -22.451862  109.27283  
408  879  -115.80969  -5.514824  115.940926  
409  874  -96.574036  -43.794052  106.03991  
410  662  -117.92615  -18.616158  119.386505  
411  384  -106.89209  -10.6369705  107.42004  
412  145  -92.439026  -0.5600815  92.44072  
413  44  -113.27893  16.403397  114.46042  
414  106  -96.63458  -34.209633  102.51118  
415  319  -109.98303  20.760971  111.925354  
416  594  -107.21924  -37.62648  113.62974  
417  831  -108.04675  -11.461647  108.65298  
418  909  -74.44122  -54.96676  92.535614  
419  747  -117.24921  -10.998482  117.76393  
420  478  -88.28961  21.934044  90.9734  
421  216  -91.18634  24.716545  94.476746  
422  60  -86.27417  8.422592  86.684326  
423  67  -100.98364  -13.66671  101.90424  
424  235  -90.22583  23.920654  93.3429  
425  500  -106.02789  0.12915039  106.02797  
426  759  -120.650635  -4.437668  120.732216  
427  913  -170.92462  9.2269745  171.1735  
428  818  -233.71902  69.93556  243.95813  
429  572  -8.347839  -45.883972  46.63717  
430  299  -25.009155  -56.285645  61.591652  
431  95  -64.970825  -62.52455  90.16943  
432  46  -74.63855  -17.872528  76.74855  
433  162  -37.39984  -35.495026  51.56205  
434  406  -104.073364  -42.288025  112.33674  
435  679  -67.52106  -52.45214  85.50041  
436  879  -63.04962  -18.364365  65.66966  
437  874  -61.78528  -26.559067  67.2518  
438  663  -74.436584  -37.968994  83.56105  
439  387  -81.18317  -3.0872345  81.241844  
440  146  -55.10431  10.169144  56.03478  
441  44  -57.12567  -50.969833  76.55891  
442  107  -57.513794  -23.968796  62.308422  
443  318  -88.11517  -19.031464  90.146996  
444  590  -55.29944  -28.521927  62.221603  
445  829  -56.905884  -20.237549  60.397335  
446  910  -99.20575  -38.112396  106.27481  
447  747  -79.03937  -41.76793  89.39677  
448  479  -85.01068  -34.4516  91.72638  
449  217  -45.207214  -58.094604  73.61165  
450  60  -83.921265  -63.29332  105.11338  
451  67  -59.82721  -51.72693  79.08836  
452  234  -49.677002  -33.485413  59.90891  
453  497  -57.068237  -7.5789795  57.5693  
454  758  -43.26581  22.787964  48.900116  
455  911  -30.89325  60.845642  68.239174  
456  821  109.053955  172.69229  204.24345  
457  572  815.65967  977.0502  1272.7638  
458  300  -373.76483  -391.28555  541.1142  
459  94  -203.33801  -178.73386  270.72522  
460  48  -137.2356  -156.5873  208.2143  
461  161  -160.04935  -127.52754  204.64375  
462  409  -107.88458  -148.72734  183.73596  
463  678  -122.79938  -83.81726  148.67757  
464  878  -99.404724  -111.6467  149.48674  
465  875  -112.71326  -108.56421  156.4943  
466  665  -138.82642  -108.08548  175.94102  
467  388  -113.35977  -89.59331  144.49013  
468  149  -116.67987  -99.28598  153.20541  
469  44  -123.507324  -81.907684  148.19894  
470  106  -112.46323  -126.64166  169.36967  
471  317  -114.78833  -59.74518  129.40575  
472  590  -78.14703  -115.14259  139.15738  
473  828  -136.1958  -148.24524  201.31056  
474  910  -59.98108  -162.39705  173.12  
475  750  -97.43558  -67.92383  118.774315  
476  486  -86.888  -62.284454  106.90593  
477  218  -77.27313  -74.31296  107.207985  
478  61  -98.162506  -40.86502  106.328865  
479  66  -112.42996  -97.61972  148.89629  
480  233  -65.93225  -96.946594  117.24207  
481  496  -66.118225  -77.306366  101.7246  
482  757  -109.91803  -100.57013  148.98431  
483  912  -101.72638  -101.88995  143.97853  
484  821  -81.22449  -99.407135  128.37132  
485  578  -23.883972  -116.420715  118.84539  
486  304  -52.378845  -259.06628  264.30832  
487  95  -78.88556  -113.51901  138.2371  
488  47  -118.35449  -70.6738  137.84982  
489  162  -28.370483  -116.8876  120.28133  
490  406  -75.321075  -82.29468  111.5602  
491  674  -103.714874  -107.44626  149.33678  
492  877  -135.66422  -133.262  190.16713  
493  875  -84.507935  -75.43298  113.27721  
494  666  -79.803345  -123.23868  146.8208  
495  393  -72.966156  -101.10324  124.683304  
496  151  -70.09894  -111.76892  131.93237  
497  44  -76.72519  -144.99048  164.03961  
498  102  -99.954926  -146.04324  176.9735  
499  314  -67.743866  -121.941315  139.49522  
500  587  -107.7887  -105.32614  150.70502  
501  826  -103.14685  -105.495544  147.5418  
502  910  -109.19275  -118.01773  160.78322  
503  753  -80.531525  -105.02673  132.34781  
504  487  -75.0423  -101.24686  126.02489  
505  221  -82.65628  -115.54147  142.06299  
506  63  -55.135345  -138.49683  149.06802  
507  67  -83.831604  -124.770325  150.31757  
508  231  -117.71121  -145.91324  187.47427  
509  495  -89.52661  -94.98813  130.52876  
510  755  -127.9187  -113.89075  171.27258  
511  910  -97.59711  -101.16205  140.56654  
512  822  -94.77771  -158.19836  184.41675  
513  578  -126.290955  -153.47565  198.75658  
514  306  -405.7497  -254.62927  479.02908  
515  98  -48.68103  -114.67871  124.5835  
516  46  -44.242004  -112.66522  121.04052  
517  160  -41.16159  -102.91815  110.84413  
518  404  -84.84546  -153.51727  175.40326  
519  674  -65.34509  -117.62436  134.55656  
520  875  -40.998535  -136.79413  142.80585  
521  877  -51.8804  -134.68924  144.3356  
522  670  -56.888153  -108.092255  122.14826  
523  395  -55.00235  -159.04977  168.29167  
524  152  -84.2207  -175.30777  194.48892  
525  45  -35.72284  -182.16428  185.6339  
526  101  -61.26056  -122.401855  136.87611  
527  314  -30.610474  -170.97644  173.69498  
528  585  -89.60245  -157.0339  180.7989  
529  822  -40.59378  -156.67227  161.84578  
530  913  -43.77603  -168.46991  174.06451  
531  753  -77.58057  -147.85706  166.97441  
532  490  -77.290344  -179.74881  195.66153  
533  224  -68.77933  -160.044  174.19725  
534  64  -71.23726  -156.78091  172.20628  
535  64  -63.414185  -157.12814  169.44206  
536  225  -22.298248  -168.3421  169.81247  
537  493  -61.641113  -193.28302  202.87424  
538  752  -19.427612  -178.39618  179.45091  
539  910  -56.798843  -180.7652  189.47867  
540  826  -31.536163  -201.20251  203.659  
541  583  -92.67978  -255.08215  271.39722  
542  308  -113.750275  -289.63876  311.17477  
543  98  178.73022  2140.173  2147.6233  
544  45  -41.591232  -2.2821655  41.653797  
545  155  -13.787659  -93.12207  94.13724  
546  395  -22.640305  -110.43771  112.73452  
547  672  -21.262054  -118.73462  120.62332  
548  876  -0.99194336  -107.62738  107.63196  
549  879  -44.06465  -109.01947  117.588005  
550  672  -21.452942  -131.40619  133.14584  
551  396  -46.823944  -136.47574  144.28482  
552  155  -42.76561  -155.78049  161.54398  
553  45  -40.19525  -154.4541  159.59865  
554  100  -18.426361  -107.89685  109.45895  
555  310  -54.75122  -197.38403  204.8369  
556  580  -29.938705  -218.70032  220.74  
557  822  -42.509567  -199.38907  203.87021  
558  912  -10.679016  -231.15082  231.39737  
559  754  -26.044388  -174.69086  176.62164  
560  489  10.037613  -229.92859  230.14758  
561  225  -12.08226  -205.5669  205.92166  
562  64  22.494034  -212.47513  213.66249  
563  65  13.284393  -216.34058  216.74806  
564  225  -32.022644  -234.74072  236.91487  
565  489  -6.4229584  -209.56482  209.66322  
566  751  53.628906  -113.96875  125.956085  
567  910  -37.224  -206.10837  209.4428  
568  826  -7.5699005  -207.78235  207.9202  
569  584  -33.820404  -163.54535  167.00569  
570  310  -1.2482452  -233.07904  233.08238  
571  100  -4.527054  -186.42377  186.47873  
572  46  49.023285  -257.86768  262.4862  
573  153  -14.715149  -237.29855  237.75436  
574  397  -4.8049316  -198.3822  198.44038  
575  669  12.129944  -244.01813  244.31943  
576  874  -27.478325  -263.22308  264.65344  
577  879  36.766403  -228.57861  231.51663  
578  673  48.57476  -268.11713  272.48175  
579  400  17.522888  -225.81152  226.49039  
580  155  -6.564522  -267.2551  267.33572  
581  45  8.620506  -238.84222  238.99774  
582  99  3.3853226  -197.55396  197.58296  
583  306  -9.19664  -237.59955  237.77747  
584  580  43.764114  -236.76361  240.77438  
585  820  38.689217  -239.53549  242.63986  
586  913  20.933311  -236.87854  237.8017  
587  757  40.98932  -243.78113  247.20308  
588  493  26.508564  -252.68457  254.07124  
589  227  36.9467  -271.16962  273.67502  
590  64  60.774757  -253.19077  260.38266  
591  64  -11.508186  -264.92944  265.17926  
592  224  43.589397  -265.1296  268.68893  
593  486  79.62416  -297.41397  307.8881  
594  748  74.752945  -264.90213  275.2474  
595  909  60.30748  -256.8256  263.81125  
596  830  49.667503  -260.32562  265.0213  
597  586  80.64355  -288.5716  299.62802  
598  313  83.60185  -266.7565  279.55017  
599  102  106.45589  -236.8028  259.63132  
600  45  -129.18855  -525.4622  541.11017  
601  153  24.57361  -335.7897  336.68768  
602  397  52.249435  -323.9979  328.18384  
603  666  54.754055  -339.84296  344.22556  
604  870  81.31754  -336.6241  346.30673  
605  880  75.40346  -367.34827  375.00726  
606  678  68.53508  -316.8917  324.21814  
607  402  115.984  -379.85632  397.16885  
608  156  70.438965  -385.93396  392.3094  
609  46  87.28711  -350.15906  360.8745  
610  99  129.18213  -349.0757  372.21213  
611  306  100.94864  -387.17664  400.12045  
612  576  119.969696  -419.32312  436.14746  
613  818  111.38033  -398.82828  414.08887  
614  914  154.15126  -413.15182  440.97284  
615  761  139.46799  -422.2133  444.65198  
616  497  111.72314  -385.36435  401.2328  
617  230  142.35919  -445.4734  467.6673  
618  64  172.15942  -466.27054  497.03833  
619  63  194.36649  -460.94977  500.25296  
620  223  165.75351  -496.42712  523.36804  
621  483  178.9575  -571.20245  598.58  
622  747  251.16628  -570.77936  623.5973  
623  907  239.1785  -614.2926  659.21295  
624  829  303.8157  -655.39417  722.38873  
625  591  366.5854  -800.29456  880.2592  
626  314  464.54004  -992.2441  1095.6029  
627  101  658.33276  -1460.8682  1602.3538  
628  46  1510.9647  -3158.2002  3501.0344  
629  153  -2188.6084  4267.7593  4796.225  
630  395  -519.5983  860.626  1005.3156  
631  665  -283.2948  383.3479  476.66714  
632  873  -146.58514  139.39532  202.28262  
633  882  -114.55592  -17.964355  115.955925  
634  679  -175.99841  -92.77179  198.95238  
635  406  115.31102  -66.62091  133.17273  
636  160  71.23021  -121.95447  141.23256  
637  48  80.339615  -166.34897  184.73341  
638  98  76.81738  -195.45135  210.0051  
639  303  117.35411  -215.59503  245.46529  
640  577  103.93793  -221.33673  244.52615  
641  818  111.53824  -252.64069  276.16678  
642  913  121.885574  -272.72913  298.72607  
643  760  142.21147  -303.22595  334.91803  
644  497  158.97964  -307.44684  346.1186  
645  234  174.45523  -295.3736  343.04547  
646  68  92.35329  -351.41437  363.3472  
647  63  154.59865  -333.169  367.29053  
648  222  180.83736  -388.21954  428.2716  
649  484  166.90407  -367.45245  403.58182  
650  745  239.05199  -400.77243  466.65234  
651  907  223.26561  -398.42932  456.72034  
652  830  188.75511  -408.9732  450.43042  
653  591  216.68419  -437.68854  488.38846  
654  317  192.65715  -432.2355  473.22754  
655  105  207.87778  -405.29004  455.49225  
656  45  203.72574  -399.16666  448.14975  
657  153  206.1274  -400.10062  450.07666  
658  391  421.0835  -466.07468  628.12177  
659  664  351.95267  -463.78293  582.2073  
660  872  327.73065  -441.3036  549.68744  
661  882  359.4668  -476.22012  596.65906  
662  680  337.4555  -485.60315  591.3431  
663  406  394.76962  -494.8833  633.05023  
664  160  385.70465  -509.85876  639.3153  
665  46  418.92303  -527.48645  673.60114  
666  95  453.37756  -557.53754  718.6093  
667  303  446.36835  -586.4894  737.0309  
668  574  445.73822  -593.2605  742.05164  
669  816  465.10474  -572.18036  737.36884  
670  914  503.41486  -576.59424  765.43286  
671  762  509.6058  -619.3418  802.0488  
672  500  509.6286  -606.6501  792.304  
673  232  566.7129  -646.72  859.88965  
674  68  596.1183  -690.91003  912.5315  
675  61  566.8326  -683.1529  887.692  
676  218  609.7041  -684.99414  917.03656  
677  484  670.0137  -673.5781  950.0662  
678  744  687.3572  -725.14746  999.149  
679  907  738.8943  -755.44977  1056.7257  
680  832  729.84607  -714.8155  1021.58527  
681  593  791.3487  -834.8035  1150.2738  
682  318  780.2018  -816.0074  1128.9742  
683  106  831.51843  -846.3529  1186.4806  
684  45  856.38824  -838.28906  1198.3861  
685  148  916.66907  -828.1818  1235.3815  
686  386  927.8242  -1018.8296  1377.9955  
687  662  1000.59973  -1011.0079  1422.4404  
688  870  1023.73785  -1025.3743  1448.9415  
689  883  1132.2124  -1087.7545  1570.0684  
690  681  1156.0383  -1090.1871  1589.0037  
691  409  1250.7959  -1163.3734  1708.1943  
692  163  1305.2966  -1192.1709  1767.787  
693  47  1366.0593  -1205.7642  1822.0828  
694  94  1453.279  -1324.8291  1966.5177  
695  298  1583.6038  -1383.7574  2102.9944  
696  570  1710.478  -1420.9222  2223.6804  
697  815  1780.6409  -1510.532  2335.0352  
698  914  1951.8022  -1596.866  2521.8074  
699  766  2081.764  -1702.344  2689.185  
700  501  2228.3186  -1829.8849  2883.3804  
701  235  2453.6074  -1941.029  3128.5432  
702  68  2641.992  -2039.9102  3337.867  
703  61  2937.3542  -2239.3657  3693.6174  
704  215  3275.8884  -2446.5166  4088.6292  
705  477  3723.2966  -2694.7874  4596.174  
706  740  4175.843  -3083.4033  5190.861  
707  905  4785.926  -3552.5662  5960.3535  
708  834  5531.6167  -4066.075  6865.257  
709  596  6571.817  -4716.96  8089.406  
710  321  8368.578  -5664.9263  10105.666  
711  106  10972.905  -7279.9756  13168.245  
712  44  16235.47  -10480.888  19324.582  
713  146  28846.297  -19057.914  34573.297  
714  385  120812.195  -80927.87  145412.88  
715  657  -54660.18  36491.645  65721.95  
716  867  -22240.502  14477.729  26537.605  
717  883  -14247.778  8793.42  16742.861  
718  686  -10669.721  6421.6797  12453.148  
719  410  -8574.377  4973.4  9912.349  
720  164  -7138.3555  4159.514  8261.82  
721  49  -6072.9395  3608.178  7063.9604  
722  94  -5262.443  3142.1414  6129.14  
723  295  -4692.0625  2732.7415  5429.855  
724  568  -4280.244  2370.8174  4892.981  
725  808  -3949.264  2118.0386  4481.3804  
726  916  -3601.4692  1871.4562  4058.6855  
727  766  -3408.914  1787.3718  3849.077  
728  505  -3197.485  1660.296  3602.8452  
729  237  -2941.664  1570.9186  3334.842  
730  68  -2812.1367  1477.0488  3176.4424  
731  60  -2639.38  1292.852  2939.012  
732  213  -2517.2039  1235.3933  2804.017  
733  475  -2423.1567  1158.7533  2685.9631  
734  738  -2361.6992  1100.209  2605.395  
735  904  -2244.2896  1012.9969  2462.3157  
736  838  -2184.466  997.51245  2401.442  
737  597  -2089.9456  918.37354  2282.8232  
738  323  -2034.1034  890.9958  2220.6868  
739  107  -1933.7192  883.3585  2125.933  
740  44  -1902.154  815.03357  2069.4128  
741  145  -1830.7434  767.05334  1984.9414  
742  382  -1822.4458  742.56824  1967.9218  
743  655  -1843.3997  582.97687  1933.3867  
744  865  -1679.3591  691.4874  1816.1503  
745  886  -1696.759  636.424  1812.1884  
746  691  -1629.1837  641.8844  1751.0725  
747  413  -1603.7207  599.765  1712.2026  
748  164  -1522.4382  555.9946  1620.7863  
749  49  -1499.4943  561.25934  1601.0918  
750  93  -1539.0093  524.3664  1625.8873  
751  293  -1475.1794  476.0035  1550.0754  
752  566  -1480.8566  463.14606  1551.5929  
753  811  -1476.5334  496.42365  1557.7507  
754  916  -1416.4918  495.63873  1500.7021  
755  769  -1387.9703  463.97147  1463.4655  
756  513  -1349.9525  439.16638  1419.5911  
757  239  -1327.5366  401.29337  1386.8633  
758  69  -1324.0164  385.8197  1379.0853  
759  58  -1332.6671  322.5481  1371.1451  
760  215  -1344.4338  352.8274  1389.9602  
761  472  -1281.4957  355.3345  1329.8473  
762  738  -1251.2795  378.1679  1307.1769  
763  905  -1245.1033  368.43616  1298.4712  
764  836  -1220.4502  272.42172  1250.4849  
765  602  -1235.6213  270.07297  1264.7922  
766  328  -1243.0884  263.34802  1270.6774  
767  109  -1224.5144  305.5095  1262.0505  
768  43  -1208.8792  280.74527  1241.0507  
769  144  -1209.7168  284.99078  1242.8333  
770  382  -1211.1835  273.4792  1241.6748  
771  652  -1266.4813  419.85254  1334.2605  
772  865  -1105.1525  204.00366  1123.8236  
773  887  -1132.0765  171.39848  1144.978  
774  691  -1176.1543  201.93883  1193.3643  
775  418  -1112.9353  174.13269  1126.4756  
776  170  -1128.2024  157.22311  1139.1049  
777  48  -1133.5264  177.03082  1147.2671  
778  91  -1100.2749  140.97572  1109.2695  
779  293  -1112.9402  117.828865  1119.1602  
780  563  -1096.9885  149.5593  1107.1368  
781  808  -1055.376  167.74596  1068.624  
782  917  -1071.9465  86.47411  1075.4288  
783  772  -1079.0715  104.6616  1084.1353  
784  511  -1076.9648  100.84528  1081.676  
785  244  -1055.1055  81.748795  1058.2676  
786  71  -1057.4617  120.318146  1064.2845  
787  60  -1074.447  69.57602  1076.6974  
788  213  -1072.4075  77.136  1075.178  
789  472  -1039.9385  69.59163  1042.2644  
790  736  -1036.1301  30.692562  1036.5846  
791  903  -1049.8281  27.690605  1050.1932  
792  840  -1059.8824  -5.417492  1059.8962  
793  604  -1045.4204  24.55043  1045.7086  
794  327  -1012.28033  -125.37572  1020.01495  
795  108  -1019.1676  91.22279  1023.242  
796  43  -947.79987  81.92698  951.3341  
797  143  -968.1536  30.348629  968.6292  
798  380  -927.71436  -2.3868017  927.7174  
799  653  -796.26587  -50.31595  797.854  
