n v(n)    Re(T)       Im(T)        Mod(T) 
   
0  118  365254.0  0.0  365254.0  
1  569  -409.94467  -10.0302305  410.06738  
2  563  -354.05185  21.79094  354.7218  
3  133  -303.03378  -26.000553  304.1472  
4  914  -404.61703  -9.66927  404.73254  
5  85  -100.55237  -98.69331  140.8941  
6  649  -274.7771  -65.52232  282.4812  
7  478  -297.4912  -11.710791  297.72162  
8  188  -268.6832  -26.734001  270.00995  
9  888  -265.8667  -46.71415  269.93945  
10  57  -305.45453  5.2397804  305.49945  
11  712  -296.89975  -57.15821  302.35165  
12  407  -317.01794  -33.09827  318.74106  
13  250  -335.79688  -15.865387  336.17145  
14  853  -315.3555  -28.03537  316.59924  
15  45  -317.2316  46.712147  320.6523  
16  780  -336.68768  -5.986084  336.7409  
17  324  -301.29333  2.1665459  301.30112  
18  325  -352.13187  -10.85487  352.29913  
19  797  -326.9185  -28.368298  328.147  
20  46  -318.52313  -33.04624  320.2328  
21  829  -314.892  18.458801  315.43256  
22  255  -321.86182  17.508186  322.33768  
23  392  -355.60333  77.75509  364.0049  
24  737  -281.72632  -263.8417  385.98206  
25  58  -374.85562  -105.02571  389.29056  
26  875  -395.3835  -121.14141  413.5255  
27  188  -340.703  -68.500336  347.521  
28  472  -341.20175  -43.35331  343.94498  
29  662  -306.0452  -27.634521  307.2903  
30  81  -291.86877  -55.80027  297.15494  
31  902  -362.8006  -80.01551  371.51953  
32  138  -274.45377  -52.35341  279.4025  
33  539  -357.32202  -81.41935  366.48074  
34  593  -346.64603  -43.422806  349.35513  
35  115  -290.0797  -25.233253  291.17514  
36  920  -317.24506  -26.932076  318.38617  
37  91  -295.5487  -28.227127  296.89362  
38  619  -290.36652  -61.68992  296.84738  
39  511  -313.94556  -84.0128  324.99225  
40  168  -340.05304  -47.284607  343.32477  
41  900  -313.28482  -16.863403  313.73834  
42  66  -304.95657  -62.7641  311.34842  
43  682  -326.72592  -59.669983  332.13  
44  438  -301.41232  -69.74588  309.3766  
45  222  -304.24454  -47.793213  307.97552  
46  863  -284.1121  -49.586166  288.40677  
47  47  -263.2245  -9.315247  263.38928  
48  756  -384.3578  -90.6944  394.91312  
49  354  -331.21457  -95.634125  344.7448  
50  295  -312.1658  -86.68303  323.9775  
51  819  -329.35333  -99.27876  343.99112  
52  41  -346.12558  -53.150757  350.18268  
53  807  -331.8799  -93.47948  344.7937  
54  286  -340.4946  -71.51164  347.9231  
55  359  -308.43997  -49.511047  312.3885  
56  755  -301.28415  -67.13826  308.67407  
57  51  -305.01117  -79.3026  315.1519  
58  858  -317.45624  -95.6255  331.54593  
59  215  -369.10986  -64.97737  374.7855  
60  439  -349.85767  -62.915085  355.46967  
61  694  -323.6668  -79.16916  333.2086  
62  69  -364.66843  -45.121735  367.44937  
63  889  -301.67172  -106.42767  319.8948  
64  159  -315.42816  -69.8849  323.07712  
65  509  -312.88376  -127.716  337.9462  
66  614  -363.53815  -106.72551  378.88034  
67  104  -324.81726  -98.015915  339.2836  
68  914  -359.4776  -105.908325  374.7542  
69  108  -322.394  -104.00914  338.75626  
70  589  -283.53177  -132.2612  312.86304  
71  542  -262.36978  -109.990326  284.49213  
72  147  -373.19846  -135.45648  397.02084  
73  910  -423.56598  -101.40164  435.53467  
74  75  -411.18884  -86.71144  420.23224  
75  653  -593.63525  -94.46735  601.10474  
76  457  -281.56747  -122.972946  307.25003  
77  209  -284.59512  -91.98303  299.09073  
78  878  -352.39877  -97.320435  365.59018  
79  53  -345.6288  -83.40808  355.55054  
80  729  -298.1766  -164.15643  340.37717  
81  385  -292.53674  -120.93544  316.5488  
82  268  -322.88266  -90.67415  335.37296  
83  840  -296.87918  -99.08179  312.97678  
84  42  -255.54935  -146.06439  294.3472  
85  786  -562.5829  -23.235458  563.0625  
86  305  -406.90506  -122.89917  425.05994  
87  345  -389.75018  -86.55928  399.24643  
88  778  -384.02963  -103.691895  397.78232  
89  47  -368.1121  -95.74588  380.36008  
90  844  -315.26334  -112.55414  334.75275  
91  238  -321.78925  -155.7757  357.51138  
92  410  -381.11407  -155.5553  411.63745  
93  718  -371.76974  -125.80005  392.47726  
94  62  -410.9436  -86.020935  419.85025  
95  878  -336.63583  -165.61768  375.1705  
96  170  -335.33957  -160.64844  371.83405  
97  493  -339.82843  -193.5882  391.10068  
98  640  -346.29562  -141.04907  373.9191  
99  93  -328.69217  -165.46042  367.9887  
100  913  -341.48535  -126.220276  364.06564  
101  112  -339.34763  -118.87317  359.56592  
102  586  -392.30984  -152.43729  420.88495  
103  548  -429.47507  -71.01138  435.30615  
104  142  -365.33676  -189.88116  411.73514  
105  911  -338.79742  -143.69357  368.01022  
106  73  -370.144  -149.53848  399.20966  
107  663  -384.61554  -169.0618  420.1321  
108  460  -350.6809  -125.89148  372.5933  
109  203  -363.77878  -158.06155  396.6339  
110  882  -378.19995  -123.54785  397.8684  
111  53  -363.08884  -135.15073  387.4264  
112  723  -305.15863  -158.86691  344.03558  
113  391  -386.99866  -151.99915  415.7784  
114  262  -365.92084  -158.84192  398.90952  
115  844  -435.39996  -152.36655  461.29025  
116  42  -379.44794  -153.65027  409.37653  
117  790  -383.28235  -180.1066  423.48996  
118  306  -369.38068  -144.63507  396.68802  
119  339  -357.60706  -147.74551  386.92575  
120  765  -402.7621  -244.10104  470.95926  
121  50  -376.46002  -191.69772  422.45728  
122  853  -361.03717  -149.99942  390.95737  
123  219  -390.7071  -181.41458  430.77057  
124  429  -381.42905  -195.62164  428.66766  
125  701  -430.3799  -227.43307  486.77786  
126  73  -468.80478  -232.69586  523.3787  
127  890  -181.9713  -44.159332  187.25278  
128  158  -403.7435  -135.55563  425.89218  
129  511  -452.037  -153.3725  477.3474  
130  622  -373.13287  -138.01382  397.8391  
131  99  -376.91846  -158.62366  408.9364  
132  912  -405.68396  -228.56818  465.64243  
133  112  -375.71545  -206.30402  428.62973  
134  581  -433.46295  -227.96579  489.75354  
135  552  -445.84747  -190.97382  485.02676  
136  150  -432.7757  -204.93304  478.8448  
137  908  -414.24603  -204.57129  462.0056  
138  72  -468.97556  -216.50363  516.5384  
139  658  -475.10626  -237.24384  531.0467  
140  467  -536.2416  -262.3227  596.9658  
141  200  -595.21045  -244.95615  643.6451  
142  884  -547.8951  -207.12778  585.7396  
143  54  -612.20166  -194.29868  642.295  
144  721  -557.57513  -206.86829  594.7138  
145  394  -643.67694  -256.40887  692.8676  
146  267  -740.7112  -286.4203  794.15967  
147  838  -927.38794  -353.08923  992.33075  
148  41  -1209.6804  -375.84702  1266.7233  
149  788  -1815.5852  -355.77008  1850.114  
150  314  -4443.778  -52.506622  4444.088  
151  334  4261.2725  -371.70218  4277.453  
152  789  1098.4781  -95.69464  1102.6385  
153  46  572.6709  -55.36017  575.3405  
154  833  357.1577  -56.953033  361.67014  
155  248  417.9972  -220.86273  472.75998  
156  411  45.540024  -95.8439  106.1129  
157  719  61.675674  -178.37021  188.73213  
158  63  0.047332764  -234.50058  234.5006  
159  880  -76.71847  -204.31644  218.24512  
160  179  -96.471695  -168.61542  194.26257  
161  482  -158.09982  -202.0936  256.58795  
162  653  -120.026474  -140.19476  184.55603  
163  86  -154.40506  -145.46655  212.13542  
164  903  -236.61676  -91.72128  253.77211  
165  129  122.39786  -499.42902  514.2087  
166  562  -122.56562  -287.56116  312.59198  
167  570  -145.61804  -285.3764  320.3815  
168  129  -199.29404  -216.53891  294.29105  
169  918  -204.02423  -183.83908  274.63193  
170  86  -184.76086  -119.7283  220.16232  
171  630  -143.52554  -112.01376  182.06226  
172  499  -137.19363  -73.397156  155.59317  
173  177  -135.46725  30.866882  138.93935  
174  895  -725.9942  1691.4398  1840.6619  
175  62  28.369064  -812.7762  813.2711  
176  705  -123.774895  -569.6571  582.9489  
177  413  -127.8621  -535.4448  550.49963  
178  243  -204.20793  -467.97797  510.59207  
179  856  -219.28123  -393.2386  450.2453  
180  45  -203.48918  -407.20453  455.21796  
181  762  -252.17093  -353.3544  434.10773  
182  343  -202.26979  -345.52356  400.37433  
183  306  -174.4404  -360.42905  400.42297  
184  811  -218.29572  -375.02625  433.93283  
185  41  -244.61778  -358.49146  433.99768  
186  824  -227.88707  -363.1723  428.7501  
187  264  -242.24077  -368.65692  441.1219  
188  383  -215.83011  -314.03653  381.05325  
189  746  -222.34619  -343.3614  409.06586  
190  55  -272.5614  -383.42892  470.43326  
191  865  -282.87994  -376.1302  470.63254  
192  204  -271.0754  -385.71637  471.44354  
193  453  -303.95557  -335.36188  452.61084  
194  682  -265.8625  -366.78125  453.0026  
195  76  -219.7966  -339.9491  404.81592  
196  898  -208.03882  -366.03543  421.02505  
197  142  -193.48006  -415.12082  457.99545  
198  533  -112.9435  -343.76096  361.8395  
199  600  -203.54332  -392.30768  441.9674  
200  112  -270.98148  -407.2246  489.14502  
201  917  -298.46588  -371.16895  476.28592  
202  101  -236.2309  -376.56647  444.53046  
203  599  -261.21674  -363.70645  447.79077  
204  530  -169.01884  -413.1568  446.39212  
205  155  -247.11649  -427.99417  494.21207  
206  902  -272.1402  -449.5936  525.5423  
207  68  -249.88219  -436.8786  503.29318  
208  679  -271.72946  -412.58612  494.02856  
209  445  -270.5077  -391.76462  476.08185  
210  217  -239.41415  -387.98196  455.90475  
211  873  -212.3316  -423.10498  473.39468  
212  51  -224.39581  -458.86783  510.7966  
213  740  -259.85278  -427.65552  500.41254  
214  374  -307.12384  -419.18857  519.6577  
215  278  -303.47382  -430.6476  526.8337  
216  825  -284.6556  -388.51425  481.63486  
217  41  -284.4915  -416.6504  504.5126  
218  801  -271.29486  -427.44315  506.26923  
219  293  -242.54123  -484.55026  541.86273  
220  355  -262.4353  -484.42288  550.9427  
221  769  -310.7625  -478.3789  570.4557  
222  50  -174.81226  -415.75443  451.01117  
223  849  -218.50272  -479.69974  527.1198  
224  229  -228.85368  -545.104  591.19574  
225  421  -276.0315  -496.39316  567.9785  
226  700  -276.16315  -493.19504  565.2499  
227  70  -286.11563  -501.12433  577.0509  
228  890  -267.7109  -481.82468  551.20245  
229  164  -283.82047  -484.02692  561.1026  
230  505  -284.1996  -472.41373  551.3113  
231  627  -173.4979  -568.4355  594.3235  
232  98  -252.84766  -540.1482  596.3992  
233  909  -301.88953  -531.4415  611.2016  
234  116  -331.62976  -525.1095  621.0622  
235  573  -447.29492  -363.55402  576.4063  
236  548  -142.28159  -617.2096  633.397  
237  143  -146.68939  -579.4505  597.7296  
238  911  -248.91187  -612.7403  661.3681  
239  78  -239.73341  -631.6177  675.58344  
240  651  -249.3838  -623.56714  671.58636  
241  475  -203.49448  -582.5017  617.0237  
242  193  -176.01869  -625.12036  649.429  
243  885  -170.16347  -663.58813  685.0582  
244  57  -58.295822  -791.3887  793.53284  
245  715  -592.40326  59.023804  595.3364  
246  390  -329.11133  -479.59448  581.6572  
247  263  -317.07285  -524.3456  612.7589  
248  843  -285.742  -582.44934  648.7648  
249  44  -275.8268  -558.8912  623.2494  
250  784  -222.9058  -593.00464  633.5152  
251  319  -224.50677  -660.3774  697.49664  
252  328  -234.8383  -705.02057  743.10364  
253  792  -272.69333  -732.6748  781.7762  
254  46  -320.23236  -653.99664  728.1898  
255  832  -263.87048  -669.47327  719.5986  
256  241  -283.61798  -688.86633  744.9671  
257  407  -241.66263  -684.5747  725.97754  
258  724  -221.42776  -674.8159  710.216  
259  62  -228.65427  -782.5425  815.26404  
260  876  -299.58063  -711.52277  772.0189  
261  182  -283.83905  -756.543  808.0359  
262  477  -229.1929  -770.6626  804.02124  
263  657  -224.47461  -732.0343  765.6782  
264  84  -224.68903  -801.3441  832.2485  
265  903  -238.0091  -745.07935  782.1711  
266  125  -227.62851  -829.4529  860.12024  
267  558  -221.6539  -794.6034  824.9394  
268  575  -274.6714  -781.7436  828.5936  
269  126  -223.92871  -772.58203  804.37994  
270  917  -230.31082  -872.57166  902.45465  
271  90  -243.41759  -907.71576  939.78723  
272  625  -201.18254  -937.17004  958.5208  
273  504  -294.91302  -922.0695  968.0836  
274  173  -256.86725  -914.7868  950.1661  
275  899  -225.60107  -947.47253  973.961  
276  61  -228.15506  -941.2245  968.4825  
277  701  -376.85403  -1062.0361  1126.916  
278  416  -99.888885  -991.5699  996.5885  
279  239  -241.19391  -1066.8932  1093.817  
280  859  -293.7396  -1029.0017  1070.1063  
281  47  -313.64297  -981.8026  1030.6833  
282  761  -216.24965  -978.2517  1001.8684  
283  345  -154.94977  -1034.3645  1045.906  
284  302  -103.76175  -1120.9252  1125.7174  
285  813  -153.93831  -1201.9744  1211.7917  
286  42  -244.15515  -1249.5349  1273.165  
287  819  -277.20422  -1223.221  1254.2374  
288  270  -299.7694  -1207.9353  1244.576  
289  381  -196.01791  -1208.7107  1224.5017  
290  749  -131.70256  -1254.8678  1261.7603  
291  55  -129.17892  -1322.2651  1328.5603  
292  864  -159.40234  -1433.0349  1441.8732  
293  207  -199.63818  -1487.6013  1500.9375  
294  452  -307.78638  -1547.2654  1577.5813  
295  686  -241.56168  -1454.5574  1474.4794  
296  77  -214.94617  -1469.0496  1484.6913  
297  898  -158.87932  -1507.07  1515.4215  
298  144  -138.30844  -1616.404  1622.3104  
299  530  -168.85818  -1806.3649  1814.2401  
300  605  -321.9153  -1863.1589  1890.7646  
301  113  -1523.9457  -1267.2299  1981.9894  
302  917  -129.7979  -2036.8079  2040.9395  
303  100  -125.92018  -2009.2936  2013.2354  
304  602  -155.059  -2052.753  2058.601  
305  529  -81.75696  -2184.5208  2186.05  
306  163  -88.78499  -2363.8677  2365.5344  
307  904  -65.27255  -2394.603  2395.4924  
308  66  -42.070953  -2482.9387  2483.2952  
309  679  -44.789  -2667.1606  2667.5366  
310  446  82.95685  -2871.5417  2872.7397  
311  217  30.782288  -3145.8826  3146.0332  
312  873  -39.276154  -3405.9902  3406.2166  
313  49  -82.00986  -3573.1482  3574.0894  
314  737  -37.25238  -3817.5674  3817.7493  
315  375  285.72345  -4361.84  4371.188  
316  288  284.56595  -4480.793  4489.82  
317  827  535.6836  -5342.5005  5369.2896  
318  42  537.49866  -6437.0327  6459.4346  
319  801  177.50488  -7429.1523  7431.2725  
320  294  -187.20518  -8755.896  8757.897  
321  355  23.120667  -10007.501  10007.527  
322  774  744.562  -13728.402  13748.578  
323  49  3102.8916  -21621.727  21843.236  
324  847  11428.677  -53146.207  54361.145  
325  232  -25184.64  150635.56  152726.34  
326  433  -2233.3162  32675.252  32751.484  
327  699  -536.50415  17588.447  17596.627  
328  68  -737.9032  11725.667  11748.862  
329  887  -825.79956  8049.7676  8092.0146  
330  166  -1432.7568  6675.7754  6827.794  
331  502  -1408.9698  5755.419  5925.373  
332  632  -1140.3164  5317.1694  5438.071  
333  97  -797.7976  4791.337  4857.3027  
334  910  -539.79694  4205.941  4240.4385  
335  117  -470.4699  3591.9822  3622.6616  
336  584  -586.6061  3102.0703  3157.047  
337  546  -629.6107  2735.7266  2807.2424  
338  144  -745.6067  2666.0771  2768.3745  
339  909  -669.412  2513.2134  2600.8372  
340  78  -598.4393  2383.2144  2457.2017  
341  649  -541.9126  2188.958  2255.04  
342  475  -502.85892  1972.7859  2035.8662  
343  193  -508.8636  1822.8412  1892.5359  
344  889  -520.8187  1770.4343  1845.4512  
345  57  -487.27573  1679.2625  1748.5309  
346  724  -552.7588  1580.0416  1673.9396  
347  392  -531.897  1450.877  1545.3021  
348  263  -650.81726  1184.0312  1351.1082  
349  845  -348.75143  1506.2062  1546.0544  
350  44  -405.93182  1336.9598  1397.2267  
351  779  -435.86404  1296.6465  1367.9436  
352  321  -357.90448  1194.1519  1246.6332  
353  324  -384.52472  1034.8752  1104.0045  
354  795  -362.00793  976.68384  1041.6146  
355  45  -417.7266  932.4183  1021.7139  
356  837  -492.6207  849.75903  982.22485  
357  246  -512.0837  923.4569  1055.9368  
358  403  -402.4038  923.43066  1007.29987  
359  726  -412.02026  915.6714  1004.099  
360  60  -311.78656  813.3577  871.0693  
361  875  -321.16522  716.8981  785.5507  
362  188  -417.94336  633.87115  759.25574  
363  470  -474.77817  633.1937  791.4219  
364  662  -479.4562  690.4688  840.61017  
365  85  -449.1085  723.01166  851.1429  
366  904  -394.15625  686.8518  791.912  
367  128  -352.8684  632.59735  724.3587  
368  555  -342.49115  564.4619  660.2404  
369  579  -362.9131  479.9852  601.74054  
370  124  -448.11673  470.80206  649.9717  
371  918  -492.02158  550.84106  738.5872  
372  91  -616.0033  514.20807  802.4151  
373  622  -394.78046  534.00024  664.0842  
374  509  -364.4562  487.57623  608.7355  
375  169  -328.23654  387.49063  507.82697  
376  895  -316.96716  360.43015  479.97714  
377  62  -397.59973  320.82327  510.89444  
378  696  -394.02197  356.4124  531.3032  
379  424  -409.62592  319.92972  519.75806  
380  236  -420.58124  350.3511  547.3888  
381  862  -360.60742  361.6778  510.73334  
382  47  -360.59485  310.50708  475.8606  
383  755  -373.93726  266.99875  459.47513  
384  354  -369.47437  222.09625  431.0894  
385  297  -410.94186  241.97531  476.89127  
386  809  -357.1518  244.29434  432.70905  
387  42  -395.08398  186.17442  436.75195  
388  815  -423.36618  205.69295  470.6894  
389  276  -436.70544  190.63564  476.5014  
390  370  -433.0515  211.0871  481.75864  
391  754  -402.1048  221.95628  459.29605  
392  52  -386.14764  212.41772  440.71677  
393  859  -325.85724  193.702  379.08234  
394  215  -445.0766  190.14714  483.9929  
395  440  -509.80585  736.1311  895.42786  
396  682  -394.75378  -160.51021  426.13858  
397  75  -382.79385  3.0830202  382.80627  
398  894  -370.62335  18.518202  371.0857  
399  151  -332.50964  62.075092  338.25433  
400  520  -279.99722  -1.7498813  280.0027  
401  613  -331.89874  -65.62829  338.32504  
402  104  -370.62402  -21.922882  371.27185  
403  913  -383.90778  -7.5135136  383.9813  
404  109  -395.61554  156.74275  425.5349  
405  589  -507.61935  -742.3448  899.30707  
406  531  -444.34058  -193.80382  484.76642  
407  155  -325.91547  -197.65536  381.16733  
408  907  -384.80768  -216.16893  441.3683  
409  73  -400.8727  -226.2557  460.31573  
410  664  -431.74304  -214.00722  481.87253  
411  458  -437.58978  -195.54893  479.29553  
412  206  -421.9095  -209.12862  470.8953  
413  880  -394.17944  -189.40527  437.32346  
414  54  -355.51294  -246.54022  432.63324  
415  727  -410.87024  -245.54524  478.65106  
416  375  -369.4615  -224.84628  432.50162  
417  275  -373.1898  -271.013  461.21436  
418  834  -360.2292  -314.3086  478.07422  
419  41  -359.60138  -366.14166  513.19867  
420  793  -420.51193  -354.10718  549.7474  
421  308  -408.7793  -322.76138  520.84106  
422  340  -393.27744  -360.85144  533.7424  
423  784  -397.15265  -324.56406  512.9055  
424  45  -315.48114  -365.35974  482.7174  
425  841  -327.02365  -391.06604  509.78143  
426  231  -363.11374  -491.47964  611.06775  
427  419  -394.14423  -538.1957  667.08636  
428  712  -614.8168  -519.0119  804.5949  
429  65  -491.27423  -555.017  741.21136  
430  881  -447.02185  -474.81537  652.13354  
431  175  -361.916  -484.09534  604.4266  
432  488  -341.78033  -568.2794  663.1405  
433  645  -352.31573  -636.0167  727.07886  
434  90  -393.24933  -692.7047  796.5456  
435  906  -448.08853  -727.11816  854.09845  
436  119  -477.31882  -694.4583  842.6777  
437  569  -474.15894  -636.8924  794.0142  
438  561  -416.80902  -638.9714  762.89856  
439  134  -319.93036  -720.69055  788.5115  
440  914  -310.06726  -817.2552  874.09827  
441  82  -411.58078  -920.36383  1008.20056  
442  637  -399.56805  -928.68036  1010.99054  
443  492  -510.38794  -927.9289  1059.0316  
444  182  -489.7625  -854.26355  984.6997  
445  892  -415.32483  -936.74615  1024.6893  
446  57  -360.15918  -982.2012  1046.1519  
447  710  -383.2003  -1039.6395  1108.0131  
448  406  -354.992  -1199.8209  1251.2352  
449  250  -433.74255  -1301.6445  1372.0099  
450  853  -403.01215  -1342.6368  1401.8175  
451  44  -346.15955  -1511.4402  1550.5735  
452  769  -648.96436  -1189.5475  1355.0564  
453  333  -528.4436  -1457.4554  1550.2997  
454  312  -549.546  -1586.0923  1678.5975  
455  807  -483.77222  -1685.2112  1753.2748  
456  45  -519.09326  -1777.3003  1851.5544  
457  828  -504.6034  -1829.3167  1897.6365  
458  259  -496.44226  -1981.6207  2042.8597  
459  390  -537.7848  -2196.0596  2260.949  
460  737  -594.39  -2391.2375  2464.0042  
461  57  -663.7331  -2521.3047  2607.2053  
462  869  -740.79126  -2674.0347  2774.7493  
463  198  -624.1612  -2744.524  2814.6028  
464  460  -582.4324  -3112.1033  3166.1355  
465  673  -463.67706  -3601.4705  3631.196  
466  82  -531.6832  -4215.6465  4249.0425  
467  901  -787.6445  -4802.077  4866.2437  
468  137  -1131.0059  -5329.759  5448.4404  
469  540  -1397.8046  -5770.3984  5937.285  
470  593  -1419.4895  -6692.554  6841.435  
471  117  -811.3645  -8069.5645  8110.252  
472  918  -715.21313  -11750.915  11772.66  
473  97  -504.40994  -17620.178  17627.396  
474  611  -2175.949  -32725.848  32798.105  
475  521  -24857.549  -150598.86  152636.55  
476  170  11339.637  53320.39  54512.855  
477  900  3061.837  21679.72  21894.865  
478  63  717.48755  13760.365  13779.058  
479  687  6.889679  10029.514  10029.516  
480  437  -202.79666  8773.603  8775.946  
481  222  164.88687  7443.032  7444.8584  
482  869  526.3827  6448.934  6470.3813  
483  48  527.0858  5351.3667  5377.2617  
484  745  277.86594  4488.2153  4496.8086  
485  365  277.51547  4369.201  4378.0054  
486  296  -43.56482  3823.586  3823.834  
487  817  -88.82483  3579.491  3580.593  
488  41  -45.139954  3411.1255  3411.424  
489  809  25.987518  3150.4563  3150.5635  
490  282  76.91107  2876.4968  2877.525  
491  363  -48.662415  2669.7153  2670.1587  
492  762  -46.309555  2484.3423  2484.774  
493  49  -69.54944  2398.1885  2399.1968  
494  854  -92.34433  2365.491  2367.2927  
495  221  -87.05156  2186.4922  2188.2244  
496  444  -158.845  2054.2617  2060.3938  
497  689  -129.88351  2010.3279  2014.5193  
498  73  -133.52379  2040.0391  2044.404  
499  892  -1525.9585  1266.4257  1983.0238  
500  155  -324.38797  1865.7312  1893.7213  
501  514  -171.31345  1807.9835  1816.0817  
502  620  -138.06311  1616.326  1622.2119  
503  102  -162.7268  1508.3484  1517.1008  
504  913  -217.27762  1470.593  1486.5575  
505  110  -242.95491  1455.8047  1475.9385  
506  595  -309.68506  1547.1288  1577.8188  
507  537  -202.35428  1488.6846  1502.3745  
508  150  -161.25432  1433.3357  1442.3779  
509  909  -131.47696  1323.8811  1330.3937  
510  74  -133.65509  1256.7157  1263.803  
511  661  -195.63095  1207.5311  1223.2755  
512  464  -300.92078  1207.2537  1244.1924  
513  202  -278.5529  1223.8385  1255.1384  
514  881  -246.36383  1250.0955  1274.1404  
515  54  -154.51813  1201.4517  1211.3472  
516  732  -104.78522  1122.0309  1126.9132  
517  381  -156.44528  1035.158  1046.9131  
518  272  -217.9552  978.41296  1002.3953  
519  838  -314.6354  980.8189  1030.0492  
520  41  -296.87726  1032.1495  1073.9966  
521  789  -243.3428  1065.9231  1093.347  
522  312  -100.80713  992.5187  997.6249  
523  338  -378.36023  1059.1658  1124.7172  
524  788  -230.02959  940.31274  968.0401  
525  47  -226.33469  945.8025  972.50696  
526  843  -257.85797  914.9137  950.5566  
527  237  -295.47882  922.6588  968.8174  
528  414  -202.59897  937.7919  959.4268  
529  720  -242.66655  906.3059  938.231  
530  64  -233.0302  872.7631  903.3374  
531  879  -225.04645  770.4396  802.635  
532  178  -274.66074  781.2249  828.10077  
533  484  -224.85928  793.499  824.74384  
534  652  -229.61087  829.15955  860.36426  
535  87  -239.38643  744.82446  782.34863  
536  908  -225.78522  800.3091  831.5489  
537  122  -224.81018  732.37024  766.0978  
538  565  -230.0151  769.7755  803.406  
539  567  -284.87482  755.9602  807.85486  
540  130  -296.72922  711.2511  770.6662  
541  916  -229.01286  782.6105  815.42993  
542  86  -221.80695  674.12744  709.6803  
543  632  -242.26895  683.7965  725.446  
544  496  -284.2076  687.9552  744.3496  
545  176  -264.62347  667.8702  718.3844  
546  890  -321.11694  652.7408  727.45215  
547  59  -275.14948  733.07544  783.0114  
548  706  -235.80066  703.463  741.9314  
549  414  -224.11427  658.7739  695.85223  
550  244  -223.91653  591.19867  632.1823  
551  857  -277.33435  557.8396  622.9762  
552  44  -287.0368  581.54474  648.5248  
553  764  -318.09753  524.058  613.0439  
554  343  -329.08063  478.69733  580.9003  
555  305  -590.70135  -60.380493  593.77936  
556  803  -57.964035  791.1478  793.2684  
557  42  -169.51123  663.8949  685.1938  
558  824  -176.18987  624.88025  649.2443  
559  264  -203.9038  582.0863  616.7667  
560  384  -248.72058  622.4556  670.3081  
561  746  -239.60135  630.8346  674.8045  
562  56  -248.76349  614.4177  662.8668  
563  866  -147.08603  577.95654  596.37915  
564  203  -143.7283  617.9708  634.4649  
565  453  -447.6032  362.40268  575.9204  
566  670  -332.1937  524.2089  620.60266  
567  79  -301.80878  530.3447  610.2082  
568  899  -252.92947  539.49927  595.84625  
569  142  -172.03477  566.85333  592.38385  
570  534  -282.71512  472.1433  550.3155  
571  601  -283.5874  483.40906  560.4517  
572  111  -268.2107  481.2793  550.96893  
573  916  -286.33624  500.3346  576.4748  
574  102  -276.89505  492.5866  565.0774  
575  601  -278.40295  496.10516  568.8836  
576  518  -228.77756  543.7102  589.8813  
577  162  -218.46466  479.07376  526.5344  
578  904  -175.98077  414.34418  450.167  
579  68  -311.02417  477.1912  569.6029  
580  676  -261.54782  484.65295  550.72296  
581  445  -242.16656  484.35422  541.5198  
582  215  -272.53784  427.6891  507.1438  
583  874  -283.80988  416.0003  503.5914  
584  50  -284.54926  387.02097  480.3681  
585  737  -303.52664  430.86124  527.0387  
586  363  -307.20166  418.12814  518.84875  
587  286  -260.15076  426.6497  499.70828  
588  825  -224.95856  457.62387  509.92743  
589  41  -212.24925  422.49066  472.80875  
590  801  -239.76218  387.13226  455.36502  
591  295  -270.94583  390.2847  475.1145  
592  352  -271.36237  411.12167  492.60385  
593  773  -253.35542  435.9379  504.21307  
594  50  -271.89716  449.09036  524.9859  
595  846  -247.09215  427.37155  493.6608  
596  223  -168.14392  412.6269  445.5708  
597  432  -261.49542  362.83957  447.24982  
598  699  -236.5274  374.58237  443.00922  
599  68  -302.39865  376.14423  482.62762  
600  888  -270.066  406.1165  487.71533  
601  165  -202.93971  392.577  441.929  
602  501  -113.2676  343.38184  361.58075  
603  635  -191.63438  412.51205  454.85153  
604  95  -206.20776  364.8699  419.10822  
605  909  -219.92766  339.50616  404.5153  
606  110  -265.9024  365.96445  452.36496  
607  582  -304.7376  334.38614  452.41473  
608  552  -271.13834  385.1992  471.0567  
609  140  -282.9376  375.359  470.05112  
610  912  -272.44812  382.17908  469.34937  
611  79  -222.15662  342.8783  408.55734  
612  647  -214.72691  312.1664  378.8872  
613  478  -240.29683  369.02695  440.3674  
614  190  -228.43893  363.45746  429.28506  
615  888  -246.84085  358.4881  435.2518  
616  53  -217.51749  374.08362  432.7267  
617  721  -172.89618  359.97586  399.3441  
618  395  -200.89316  343.48508  397.91968  
619  256  -252.20654  352.26068  433.23865  
620  847  -202.65279  406.33618  454.06744  
621  43  -218.79886  392.0908  449.00793  
622  777  -203.50584  467.21545  509.61252  
623  329  -127.59923  531.87744  546.9691  
624  322  -123.446884  567.3668  580.64124  
625  797  27.879448  810.4891  810.96844  
626  45  -721.2995  -1694.1027  1841.265  
627  833  -131.9421  -36.394836  136.86964  
628  249  -136.18875  73.03235  154.53511  
629  399  -142.08812  112.3956  181.1679  
630  732  -183.3971  119.02426  218.63501  
631  58  -203.37918  183.7221  274.07465  
632  873  -198.77223  214.65372  292.5519  
633  191  -144.97961  285.58182  320.275  
634  468  -121.63262  286.91705  311.63422  
635  665  122.41816  498.54636  513.3563  
636  84  -235.4852  90.200195  252.1693  
637  904  -153.3971  144.9296  211.03378  
638  132  -119.05435  138.88907  182.93199  
639  548  -157.73508  201.16113  255.62894  
640  583  -94.693756  169.0918  193.8013  
641  121  -76.31316  204.45074  218.22879  
642  918  0.07575989  232.65161  232.65163  
643  94  61.89427  176.38232  186.92679  
644  618  47.347824  95.83264  106.89112  
645  511  418.985  222.4704  474.3854  
646  173  358.05185  56.90753  362.546  
647  896  573.2291  55.578766  575.9172  
648  62  1099.8568  97.1871  1104.1423  
649  691  4255.674  380.73267  4272.671  
650  427  -4447.8022  43.009888  4448.0103  
651  232  -1815.061  351.52335  1848.7875  
652  864  -1208.9373  373.10574  1265.2024  
653  47  -926.94116  350.51602  991.00024  
654  752  -740.2532  284.98944  793.21735  
655  360  -642.813  251.80197  690.37146  
656  301  -556.35  204.89212  592.87946  
657  815  -612.9331  194.56873  643.07385  
658  41  -546.84753  205.63953  584.23444  
659  812  -593.5782  243.12186  641.4385  
660  280  -535.3588  261.48715  595.80585  
661  366  -473.1297  236.20975  528.81635  
662  762  -468.56766  214.53275  515.34454  
663  51  -412.65656  203.20914  459.9776  
664  855  -431.48785  203.758  477.17825  
665  220  -443.31433  190.09698  482.35303  
666  443  -433.1016  225.59537  488.33417  
667  686  -374.85632  205.98254  427.72195  
668  72  -402.55322  226.6998  461.9977  
669  891  -374.64575  155.01535  405.44937  
670  155  -371.90033  135.69168  395.8814  
671  513  -450.0786  151.74136  474.9697  
672  620  -402.42535  133.48083  423.98505  
673  101  -180.86382  42.517365  185.7941  
674  913  -467.46768  231.94296  521.8463  
675  112  -429.54718  225.24231  485.02048  
676  594  -379.43896  191.19656  424.88828  
677  537  -387.48  179.86426  427.19073  
678  150  -360.26685  148.62863  389.72128  
679  909  -375.0876  190.27335  420.58847  
680  73  -399.5905  243.25897  467.8114  
681  660  -358.51846  145.32993  386.85434  
682  465  -368.41556  144.13898  395.60846  
683  200  -382.52588  179.52737  422.55902  
684  883  -378.1379  152.9318  407.89264  
685  55  -434.10583  150.78543  459.54773  
686  732  -364.82257  155.47403  396.56992  
687  384  -385.59442  150.71313  414.00183  
688  271  -303.0852  158.6224  342.08435  
689  839  -361.75583  133.1167  385.47028  
690  42  -377.22913  121.90463  396.43732  
691  787  -361.60797  157.14066  394.27594  
692  314  -349.58853  125.16434  371.3196  
693  332  -381.4351  168.60663  417.0383  
694  790  -368.58167  147.78726  397.1064  
695  47  -336.7677  142.09824  365.51935  
696  841  -362.8488  189.69672  409.44363  
697  237  -427.59714  69.240906  433.16696  
698  412  -391.8143  152.26923  420.36218  
699  718  -337.00055  117.72876  356.9726  
700  62  -339.58176  124.78076  361.7817  
701  880  -326.44937  164.72488  365.65488  
702  180  -345.23865  140.81009  372.8501  
703  479  -338.09332  193.53296  389.56656  
704  652  -333.3566  159.30664  369.46616  
705  85  -334.30676  163.22366  372.02548  
706  908  -408.59576  85.798004  417.50665  
707  123  -369.68015  124.4234  390.05716  
708  559  -379.45056  154.80463  409.81363  
709  571  -319.8133  154.58438  355.21384  
710  130  -313.53323  111.705536  332.8381  
711  916  -364.89398  93.68872  376.7296  
712  87  -381.9729  102.55812  395.50153  
713  629  -386.53506  82.90753  395.32648  
714  498  -405.2173  122.32175  423.27728  
715  176  -566.8521  21.907547  567.27527  
716  891  -252.84396  144.09364  291.0207  
717  58  -293.99738  97.35811  309.69833  
718  704  -321.5979  88.56439  333.5699  
719  416  -289.48734  119.88954  313.33115  
720  242  -295.50723  162.10393  337.04926  
721  859  -340.86642  83.176315  350.8678  
722  45  -348.8559  95.512115  361.6946  
723  761  -282.01996  90.371  296.14554  
724  345  -276.64636  125.12082  303.6255  
725  303  -590.19055  93.69884  597.5821  
726  803  -408.74402  85.10094  417.5091  
727  45  -420.49603  100.69263  432.38397  
728  825  -370.09247  134.91142  393.91565  
729  264  -257.97076  112.724365  281.5239  
730  383  -280.72388  131.38342  309.94757  
731  746  -319.28357  102.44438  335.31604  
732  54  -355.8555  102.90271  370.435  
733  864  -321.17224  95.836655  335.16605  
734  204  -360.0974  105.145065  375.13416  
735  452  -310.15396  126.42934  334.93262  
736  670  -311.844  68.08862  319.19077  
737  78  -297.16943  105.63812  315.3872  
738  897  -362.65805  43.483902  365.25568  
739  142  -320.46243  78.68396  329.9808  
740  533  -346.66904  62.151962  352.19638  
741  600  -364.32892  64.1994  369.94205  
742  112  -311.1335  92.03473  324.46024  
743  917  -301.04633  77.67024  310.90442  
744  101  -297.92633  66.20195  305.19305  
745  599  -304.49268  48.02063  308.256  
746  517  -336.08508  69.833145  343.26352  
747  163  -327.3354  90.52934  339.62335  
748  902  -341.8878  51.24518  345.707  
749  66  -324.54617  98.7832  339.24673  
750  676  -307.1777  84.425995  318.5685  
751  447  -326.58078  94.62341  340.01263  
752  215  -378.3914  87.30548  388.3327  
753  874  -255.577  5.111664  255.62811  
754  51  -279.10046  47.873917  283.1766  
755  736  -295.5846  45.30815  299.03693  
756  364  -298.90616  69.82602  306.95367  
757  286  -321.47577  59.519897  326.93927  
758  826  -299.43976  62.34005  305.8602  
759  40  -307.14944  14.709312  307.50146  
760  802  -334.9904  45.686592  338.09146  
761  293  -307.26566  84.42495  318.653  
762  350  -283.8278  62.23433  290.57068  
763  771  -288.29758  27.141037  289.57233  
764  48  -311.38943  26.221413  312.49152  
765  845  -285.91763  23.203133  286.85757  
766  219  -340.60126  41.742477  343.1496  
767  431  -350.95523  81.389206  360.26904  
768  699  -267.48914  51.16828  272.33917  
769  70  -355.9745  79.159546  364.6698  
770  887  -284.0518  54.133636  289.1641  
771  162  -299.29086  26.575111  300.46838  
772  499  -332.6415  42.42002  335.33542  
773  634  -331.51178  67.72924  338.35974  
774  94  -387.76047  118.75665  405.53833  
775  909  -367.62344  107.28465  382.95822  
776  113  -271.39612  260.9947  376.529  
777  582  -346.1762  -79.67808  355.22748  
778  551  -309.95944  -19.521713  310.57358  
779  141  -303.77573  -19.837524  304.4228  
780  911  -304.9832  33.730278  306.84274  
781  78  -312.79898  24.838177  313.7836  
782  648  -339.07086  10.462856  339.23224  
783  480  -286.20023  -2.2974663  286.20944  
784  191  -321.36108  4.6886063  321.3953  
785  889  -300.637  -48.166527  304.47104  
786  54  -298.33276  26.870487  299.5404  
787  720  -316.5191  14.656273  316.85825  
788  395  -297.37576  32.326687  299.12766  
789  257  -276.33923  54.89891  281.73972  
790  846  -281.75183  -5.9927025  281.81555  
791  44  -239.67175  45.298294  243.91492  
792  775  -239.39981  25.623646  240.7672  
793  326  -261.8898  10.288197  262.0918  
794  320  -236.18912  63.093567  244.47105  
795  800  -55.550385  97.795395  112.47126  
796  47  -348.17398  7.849286  348.26245  
797  833  -227.64288  24.504341  228.95795  
798  252  -242.01971  -22.746408  243.08629  
799  398  -187.17062  9.398588  187.40645  
